#instrument=ARROW,
#ra=7.7317588,
#dec=-23.8903819,
#alt=NaN,
#az=NaN,
#tracking=true,
#startTime=1477310580,
#startTimeUTC=2014-06-21T12:15:00.566Z,
#user=is4555,
#fullScan=true,
#completeTime=1477310680,
#completeTimeUTC=2016-10-24T12:04:40.937Z,
frequency,intensity
-800000,2.788
-795000,2.48
-790000,2.451
-785000,2.5
-780000,2.468
-775000,2.449
-770000,2.451
-765000,2.432
-760000,2.48
-755000,2.471
-750000,2.51
-745000,2.473
-740000,2.463
-735000,2.466
-730000,2.461
-725000,2.498
-720000,2.549
-715000,2.549
-710000,2.483
-705000,2.441
-700000,2.461
-695000,2.537
-690000,2.51
-685000,2.5
-680000,2.559
-675000,2.517
-670000,2.539
-665000,2.566
-660000,2.556
-655000,2.549
-650000,2.537
-645000,2.546
-640000,2.539
-635000,2.625
-630000,2.622
-625000,2.568
-620000,2.588
-615000,2.537
-610000,2.625
-605000,2.632
-600000,2.6
-595000,2.656
-590000,2.676
-585000,2.722
-580000,2.791
-575000,2.744
-570000,2.754
-565000,2.781
-560000,2.773
-555000,2.827
-550000,2.852
-545000,2.891
-540000,2.834
-535000,2.874
-530000,2.91
-525000,2.871
-520000,2.954
-515000,2.917
-510000,2.939
-505000,2.917
-500000,2.957
-495000,2.993
-490000,2.961
-485000,2.981
-480000,3.018
-475000,3.008
-470000,3.042
-465000,3.118
-460000,3.135
-455000,3.083
-450000,3.113
-445000,3.081
-440000,3.096
-435000,3.145
-430000,3.145
-425000,3.152
-420000,3.103
-415000,3.096
-410000,3.042
-405000,3.049
-400000,3.01
-395000,2.959
-390000,2.932
-385000,2.959
-380000,2.891
-375000,2.842
-370000,2.874
-365000,2.842
-360000,2.874
-355000,2.832
-350000,2.822
-345000,2.803
-340000,2.754
-335000,2.793
-330000,2.8
-325000,2.769
-320000,2.795
-315000,2.771
-310000,2.776
-305000,2.786
-300000,2.773
-295000,2.839
-290000,2.881
-285000,2.947
-280000,2.964
-275000,3.044
-270000,3.113
-265000,3.152
-260000,3.289
-255000,3.452
-250000,3.467
-245000,3.516
-240000,3.489
-235000,3.513
-230000,3.464
-225000,3.384
-220000,3.333
-215000,3.303
-210000,3.142
-205000,3.174
-200000,3.008
-195000,3.015
-190000,2.988
-185000,2.959
-180000,2.988
-175000,2.974
-170000,2.991
-165000,2.976
-160000,2.937
-155000,3.008
-150000,2.981
-145000,3.066
-140000,3.059
-135000,3.086
-130000,3.015
-125000,3.037
-120000,3.027
-115000,2.961
-110000,2.891
-105000,2.898
-100000,2.878
-95000,2.92
-90000,2.937
-85000,2.93
-80000,2.92
-75000,2.869
-70000,2.881
-65000,2.92
-60000,2.91
-55000,2.949
-50000,2.939
-45000,2.949
-40000,2.949
-35000,3.01
-30000,2.986
-25000,2.932
-20000,2.939
-15000,2.93
-10000,2.93
-5000,2.996
0,2.988
5000,2.998
10000,3.008
15000,2.988
20000,2.932
25000,2.988
30000,2.993
35000,2.974
40000,2.959
45000,3.005
50000,3.047
55000,3.032
60000,3.015
65000,3.035
70000,3.071
75000,3.069
80000,3.01
85000,2.991
90000,3.066
95000,3.057
100000,3.081
105000,3.064
110000,3.025
115000,2.991
120000,3.035
125000,3.123
130000,3.035
135000,3.025
140000,3.083
145000,3.037
150000,3.037
155000,3.093
160000,3.098
165000,3.118
170000,3.071
175000,3.076
180000,3.057
185000,3.037
190000,3.103
195000,3.154
200000,3.093
205000,3.093
210000,3.101
215000,3.105
220000,3.186
225000,3.12
230000,3.103
235000,3.088
240000,3.066
245000,3.125
250000,3.164
255000,3.174
260000,3.125
265000,3.076
270000,3.093
275000,3.208
280000,3.152
285000,3.125
290000,3.184
295000,3.11
300000,3.154
305000,3.171
310000,3.135
315000,3.096
320000,3.113
325000,3.152
330000,3.154
335000,3.142
340000,3.171
345000,3.201
350000,3.193
355000,3.213
360000,3.206
365000,3.147
370000,3.196
375000,3.196
380000,3.21
385000,3.25
390000,3.167
395000,3.225
400000,3.206
405000,3.174
410000,3.203
415000,3.184
420000,3.22
425000,3.179
430000,3.181
435000,3.252
440000,3.25
445000,3.262
450000,3.242
455000,3.274
460000,3.208
465000,3.196
470000,3.259
475000,3.281
480000,3.232
485000,3.247
490000,3.203
495000,3.267
500000,3.296
505000,3.281
510000,3.259
515000,3.279
520000,3.22
525000,3.262
530000,3.262
535000,3.296
540000,3.281
545000,3.311
550000,3.271
555000,3.245
560000,3.281
565000,3.281
570000,3.301
575000,3.281
580000,3.281
585000,3.262
590000,3.279
595000,3.323
600000,3.33
605000,3.298
610000,3.271
615000,3.289
620000,3.328
625000,3.376
630000,3.347
635000,3.323
640000,3.33
645000,3.335
650000,3.306
655000,3.416
660000,3.347
665000,3.318
670000,3.364
675000,3.391
680000,3.384
685000,3.406
690000,3.32
695000,3.359
700000,3.379
705000,3.367
710000,3.398
715000,3.372
720000,3.428
725000,3.408
730000,3.35
735000,3.369
740000,3.416
745000,3.452
750000,3.398
755000,3.384
760000,3.416
765000,3.398
770000,3.381
775000,3.428
780000,3.379
785000,3.347
790000,3.384
795000,3.406
800000,3.442
805000,3.452
810000,3.394
815000,3.396
820000,3.396
825000,3.455
830000,3.43
835000,3.506
840000,3.398
845000,3.423
850000,3.418
855000,3.455
860000,3.496
865000,3.457
870000,3.406
875000,3.396
880000,3.447
885000,3.489
890000,3.406
895000,3.457
900000,3.464
905000,3.469
910000,3.44
915000,3.447
920000,3.401
925000,3.457
930000,3.477
935000,3.455
940000,3.516
945000,3.538
950000,3.464
955000,3.564
960000,3.506
965000,3.43
970000,3.516
975000,3.481
980000,3.464
985000,3.484
990000,3.467
995000,3.469
1000000,3.516
1005000,3.511
1010000,3.462
1015000,3.535
1020000,3.447
1025000,3.428
1030000,3.535
1035000,3.562
1040000,3.516
1045000,3.396
1050000,3.457
1055000,3.555
1060000,3.491
1065000,3.472
1070000,3.486
1075000,3.452
1080000,3.513
1085000,3.528
1090000,3.518
1095000,3.457
1100000,3.447
1105000,3.545
1110000,3.55
1115000,3.494
1120000,3.516
1125000,3.562
1130000,3.564
1135000,3.545
1140000,3.496
1145000,3.516
1150000,3.569
1155000,3.65
1160000,3.594
1165000,3.562
1170000,3.55
1175000,3.555
1180000,3.611
1185000,3.533
1190000,3.564
1195000,3.564
1200000,3.596
1205000,3.594
1210000,3.56
1215000,3.572
1220000,3.523
1225000,3.53
1230000,3.608
1235000,3.579
1240000,3.647
1245000,3.574
1250000,3.506
1255000,3.511
1260000,3.613
1265000,3.594
1270000,3.616
1275000,3.572
1280000,3.594
1285000,3.572
1290000,3.545
1295000,3.613
1300000,3.616
